Press (GPa)	Temp (K)	Density (g/cm^-3)	dT/dP (K/GPa)
1e-06	100	0.93304	3.7224
1e-06	103.57	0.93293	4.0916
1e-06	107.14	0.93282	4.4771
1e-06	110.71	0.93269	4.8777
1e-06	114.29	0.93256	5.2922
1e-06	117.86	0.93241	5.7191
1e-06	121.43	0.93225	6.1571
1e-06	125	0.93209	6.6046
1e-06	128.57	0.93191	7.06
1e-06	132.14	0.93172	7.5219
1e-06	135.71	0.93152	7.9888
1e-06	139.29	0.93131	8.4592
1e-06	142.86	0.93108	8.9317
1e-06	146.43	0.93085	9.4051
1e-06	150	0.93061	9.8781
1e-06	153.57	0.93035	10.35
1e-06	157.14	0.93008	10.819
1e-06	160.71	0.92981	11.284
1e-06	164.29	0.92952	11.746
1e-06	167.86	0.92922	12.203
1e-06	171.43	0.92892	12.654
1e-06	175	0.9286	13.1
1e-06	178.57	0.92827	13.539
1e-06	182.14	0.92794	13.972
1e-06	185.71	0.92759	14.398
1e-06	189.29	0.92724	14.817
1e-06	192.86	0.92688	15.229
1e-06	196.43	0.9265	15.633
1e-06	200	0.92612	16.031
1e-06	203.57	0.92573	16.421
1e-06	207.14	0.92534	16.803
1e-06	210.71	0.92493	17.179
1e-06	214.29	0.92452	17.548
1e-06	217.86	0.9241	17.909
1e-06	221.43	0.92367	18.264
1e-06	225	0.92323	18.611
1e-06	228.57	0.92279	18.953
1e-06	232.14	0.92234	19.287
1e-06	235.71	0.92188	19.616
1e-06	239.29	0.92142	19.938
1e-06	242.86	0.92095	20.254
1e-06	246.43	0.92047	20.565
1e-06	250	0.91999	20.87
1e-06	253.57	0.9195	21.169
1e-06	257.14	0.919	21.463
1e-06	260.71	0.9185	21.751
1e-06	264.29	0.91799	22.035
1e-06	267.86	0.91748	22.314
1e-06	271.43	0.91696	22.587
1e-06	275	0.91644	22.857
1.2887e-06	100	0.93304	3.7224
1.2887e-06	103.57	0.93293	4.0916
1.2887e-06	107.14	0.93282	4.4771
1.2887e-06	110.71	0.93269	4.8777
1.2887e-06	114.29	0.93256	5.2922
1.2887e-06	117.86	0.93241	5.7191
1.2887e-06	121.43	0.93225	6.1571
1.2887e-06	125	0.93209	6.6046
1.2887e-06	128.57	0.93191	7.06
1.2887e-06	132.14	0.93172	7.5219
1.2887e-06	135.71	0.93152	7.9888
1.2887e-06	139.29	0.93131	8.4592
1.2887e-06	142.86	0.93108	8.9317
1.2887e-06	146.43	0.93085	9.4051
1.2887e-06	150	0.93061	9.8781
1.2887e-06	153.57	0.93035	10.35
1.2887e-06	157.14	0.93008	10.819
1.2887e-06	160.71	0.92981	11.284
1.2887e-06	164.29	0.92952	11.746
1.2887e-06	167.86	0.92922	12.203
1.2887e-06	171.43	0.92892	12.654
1.2887e-06	175	0.9286	13.1
1.2887e-06	178.57	0.92827	13.539
1.2887e-06	182.14	0.92794	13.972
1.2887e-06	185.71	0.92759	14.398
1.2887e-06	189.29	0.92724	14.817
1.2887e-06	192.86	0.92688	15.229
1.2887e-06	196.43	0.9265	15.633
1.2887e-06	200	0.92612	16.031
1.2887e-06	203.57	0.92573	16.421
1.2887e-06	207.14	0.92534	16.803
1.2887e-06	210.71	0.92493	17.179
1.2887e-06	214.29	0.92452	17.548
1.2887e-06	217.86	0.9241	17.909
1.2887e-06	221.43	0.92367	18.264
1.2887e-06	225	0.92323	18.611
1.2887e-06	228.57	0.92279	18.953
1.2887e-06	232.14	0.92234	19.287
1.2887e-06	235.71	0.92188	19.616
1.2887e-06	239.29	0.92142	19.938
1.2887e-06	242.86	0.92095	20.254
1.2887e-06	246.43	0.92047	20.565
1.2887e-06	250	0.91999	20.87
1.2887e-06	253.57	0.9195	21.169
1.2887e-06	257.14	0.919	21.463
1.2887e-06	260.71	0.9185	21.751
1.2887e-06	264.29	0.91799	22.035
1.2887e-06	267.86	0.91748	22.314
1.2887e-06	271.43	0.91696	22.587
1.2887e-06	275	0.91644	22.857
1.6608e-06	100	0.93304	3.7224
1.6608e-06	103.57	0.93293	4.0916
1.6608e-06	107.14	0.93282	4.4771
1.6608e-06	110.71	0.93269	4.8777
1.6608e-06	114.29	0.93256	5.2922
1.6608e-06	117.86	0.93241	5.7191
1.6608e-06	121.43	0.93225	6.1571
1.6608e-06	125	0.93209	6.6045
1.6608e-06	128.57	0.93191	7.06
1.6608e-06	132.14	0.93172	7.5219
1.6608e-06	135.71	0.93152	7.9888
1.6608e-06	139.29	0.93131	8.4592
1.6608e-06	142.86	0.93108	8.9317
1.6608e-06	146.43	0.93085	9.4051
1.6608e-06	150	0.93061	9.8781
1.6608e-06	153.57	0.93035	10.35
1.6608e-06	157.14	0.93008	10.819
1.6608e-06	160.71	0.92981	11.284
1.6608e-06	164.29	0.92952	11.746
1.6608e-06	167.86	0.92922	12.203
1.6608e-06	171.43	0.92892	12.654
1.6608e-06	175	0.9286	13.1
1.6608e-06	178.57	0.92827	13.539
1.6608e-06	182.14	0.92794	13.972
1.6608e-06	185.71	0.92759	14.398
1.6608e-06	189.29	0.92724	14.817
1.6608e-06	192.86	0.92688	15.229
1.6608e-06	196.43	0.9265	15.633
1.6608e-06	200	0.92612	16.031
1.6608e-06	203.57	0.92573	16.421
1.6608e-06	207.14	0.92534	16.803
1.6608e-06	210.71	0.92493	17.179
1.6608e-06	214.29	0.92452	17.548
1.6608e-06	217.86	0.9241	17.909
1.6608e-06	221.43	0.92367	18.264
1.6608e-06	225	0.92323	18.611
1.6608e-06	228.57	0.92279	18.953
1.6608e-06	232.14	0.92234	19.287
1.6608e-06	235.71	0.92188	19.616
1.6608e-06	239.29	0.92142	19.938
1.6608e-06	242.86	0.92095	20.254
1.6608e-06	246.43	0.92047	20.565
1.6608e-06	250	0.91999	20.87
1.6608e-06	253.57	0.9195	21.169
1.6608e-06	257.14	0.919	21.463
1.6608e-06	260.71	0.9185	21.751
1.6608e-06	264.29	0.91799	22.035
1.6608e-06	267.86	0.91748	22.314
1.6608e-06	271.43	0.91696	22.587
1.6608e-06	275	0.91644	22.857
2.1404e-06	100	0.93304	3.7224
2.1404e-06	103.57	0.93293	4.0916
2.1404e-06	107.14	0.93282	4.4771
2.1404e-06	110.71	0.93269	4.8777
2.1404e-06	114.29	0.93256	5.2922
2.1404e-06	117.86	0.93241	5.7191
2.1404e-06	121.43	0.93225	6.1571
2.1404e-06	125	0.93209	6.6045
2.1404e-06	128.57	0.93191	7.06
2.1404e-06	132.14	0.93172	7.5219
2.1404e-06	135.71	0.93152	7.9888
2.1404e-06	139.29	0.93131	8.4592
2.1404e-06	142.86	0.93108	8.9317
2.1404e-06	146.43	0.93085	9.4051
2.1404e-06	150	0.93061	9.8781
2.1404e-06	153.57	0.93035	10.35
2.1404e-06	157.14	0.93008	10.819
2.1404e-06	160.71	0.92981	11.284
2.1404e-06	164.29	0.92952	11.746
2.1404e-06	167.86	0.92922	12.203
2.1404e-06	171.43	0.92892	12.654
2.1404e-06	175	0.9286	13.1
2.1404e-06	178.57	0.92827	13.539
2.1404e-06	182.14	0.92794	13.972
2.1404e-06	185.71	0.92759	14.398
2.1404e-06	189.29	0.92724	14.817
2.1404e-06	192.86	0.92688	15.229
2.1404e-06	196.43	0.9265	15.633
2.1404e-06	200	0.92612	16.031
2.1404e-06	203.57	0.92573	16.421
2.1404e-06	207.14	0.92534	16.803
2.1404e-06	210.71	0.92493	17.179
2.1404e-06	214.29	0.92452	17.548
2.1404e-06	217.86	0.9241	17.909
2.1404e-06	221.43	0.92367	18.264
2.1404e-06	225	0.92323	18.611
2.1404e-06	228.57	0.92279	18.953
2.1404e-06	232.14	0.92234	19.287
2.1404e-06	235.71	0.92188	19.616
2.1404e-06	239.29	0.92142	19.938
2.1404e-06	242.86	0.92095	20.254
2.1404e-06	246.43	0.92047	20.565
2.1404e-06	250	0.91999	20.87
2.1404e-06	253.57	0.9195	21.169
2.1404e-06	257.14	0.919	21.463
2.1404e-06	260.71	0.9185	21.751
2.1404e-06	264.29	0.91799	22.035
2.1404e-06	267.86	0.91748	22.314
2.1404e-06	271.43	0.91696	22.587
2.1404e-06	275	0.91644	22.857
2.7583e-06	100	0.93304	3.7224
2.7583e-06	103.57	0.93293	4.0916
2.7583e-06	107.14	0.93282	4.4771
2.7583e-06	110.71	0.93269	4.8777
2.7583e-06	114.29	0.93256	5.2922
2.7583e-06	117.86	0.93241	5.7191
2.7583e-06	121.43	0.93225	6.1571
2.7583e-06	125	0.93209	6.6045
2.7583e-06	128.57	0.93191	7.06
2.7583e-06	132.14	0.93172	7.5219
2.7583e-06	135.71	0.93152	7.9888
2.7583e-06	139.29	0.93131	8.4592
2.7583e-06	142.86	0.93108	8.9317
2.7583e-06	146.43	0.93085	9.4051
2.7583e-06	150	0.93061	9.8781
2.7583e-06	153.57	0.93035	10.35
2.7583e-06	157.14	0.93008	10.819
2.7583e-06	160.71	0.92981	11.284
2.7583e-06	164.29	0.92952	11.746
2.7583e-06	167.86	0.92922	12.203
2.7583e-06	171.43	0.92892	12.654
2.7583e-06	175	0.9286	13.1
2.7583e-06	178.57	0.92827	13.539
2.7583e-06	182.14	0.92794	13.972
2.7583e-06	185.71	0.92759	14.398
2.7583e-06	189.29	0.92724	14.817
2.7583e-06	192.86	0.92688	15.229
2.7583e-06	196.43	0.9265	15.633
2.7583e-06	200	0.92612	16.031
2.7583e-06	203.57	0.92573	16.421
2.7583e-06	207.14	0.92534	16.803
2.7583e-06	210.71	0.92493	17.179
2.7583e-06	214.29	0.92452	17.547
2.7583e-06	217.86	0.9241	17.909
2.7583e-06	221.43	0.92367	18.264
2.7583e-06	225	0.92323	18.611
2.7583e-06	228.57	0.92279	18.953
2.7583e-06	232.14	0.92234	19.287
2.7583e-06	235.71	0.92188	19.616
2.7583e-06	239.29	0.92142	19.938
2.7583e-06	242.86	0.92095	20.254
2.7583e-06	246.43	0.92047	20.565
2.7583e-06	250	0.91999	20.87
2.7583e-06	253.57	0.9195	21.169
2.7583e-06	257.14	0.919	21.463
2.7583e-06	260.71	0.9185	21.751
2.7583e-06	264.29	0.91799	22.035
2.7583e-06	267.86	0.91748	22.313
2.7583e-06	271.43	0.91696	22.587
2.7583e-06	275	0.91644	22.857
3.5548e-06	100	0.93304	3.7224
3.5548e-06	103.57	0.93293	4.0916
3.5548e-06	107.14	0.93282	4.4771
3.5548e-06	110.71	0.93269	4.8777
3.5548e-06	114.29	0.93256	5.2922
3.5548e-06	117.86	0.93241	5.7191
3.5548e-06	121.43	0.93225	6.1571
3.5548e-06	125	0.93209	6.6045
3.5548e-06	128.57	0.93191	7.06
3.5548e-06	132.14	0.93172	7.5219
3.5548e-06	135.71	0.93152	7.9888
3.5548e-06	139.29	0.93131	8.4592
3.5548e-06	142.86	0.93108	8.9317
3.5548e-06	146.43	0.93085	9.4051
3.5548e-06	150	0.93061	9.878
3.5548e-06	153.57	0.93035	10.35
3.5548e-06	157.14	0.93008	10.819
3.5548e-06	160.71	0.92981	11.284
3.5548e-06	164.29	0.92952	11.746
3.5548e-06	167.86	0.92922	12.203
3.5548e-06	171.43	0.92892	12.654
3.5548e-06	175	0.9286	13.1
3.5548e-06	178.57	0.92827	13.539
3.5548e-06	182.14	0.92794	13.972
3.5548e-06	185.71	0.92759	14.398
3.5548e-06	189.29	0.92724	14.817
3.5548e-06	192.86	0.92688	15.229
3.5548e-06	196.43	0.9265	15.633
3.5548e-06	200	0.92612	16.031
3.5548e-06	203.57	0.92573	16.421
3.5548e-06	207.14	0.92534	16.803
3.5548e-06	210.71	0.92493	17.179
3.5548e-06	214.29	0.92452	17.547
3.5548e-06	217.86	0.9241	17.909
3.5548e-06	221.43	0.92367	18.264
3.5548e-06	225	0.92323	18.611
3.5548e-06	228.57	0.92279	18.953
3.5548e-06	232.14	0.92234	19.287
3.5548e-06	235.71	0.92188	19.616
3.5548e-06	239.29	0.92142	19.938
3.5548e-06	242.86	0.92095	20.254
3.5548e-06	246.43	0.92047	20.565
3.5548e-06	250	0.91999	20.87
3.5548e-06	253.57	0.9195	21.169
3.5548e-06	257.14	0.919	21.463
3.5548e-06	260.71	0.9185	21.751
3.5548e-06	264.29	0.91799	22.035
3.5548e-06	267.86	0.91748	22.313
3.5548e-06	271.43	0.91696	22.587
3.5548e-06	275	0.91644	22.857
4.5811e-06	100	0.93304	3.7224
4.5811e-06	103.57	0.93293	4.0916
4.5811e-06	107.14	0.93282	4.4771
4.5811e-06	110.71	0.93269	4.8777
4.5811e-06	114.29	0.93256	5.2921
4.5811e-06	117.86	0.93241	5.7191
4.5811e-06	121.43	0.93225	6.157
4.5811e-06	125	0.93209	6.6045
4.5811e-06	128.57	0.93191	7.06
4.5811e-06	132.14	0.93172	7.5219
4.5811e-06	135.71	0.93152	7.9888
4.5811e-06	139.29	0.93131	8.4592
4.5811e-06	142.86	0.93108	8.9317
4.5811e-06	146.43	0.93085	9.405
4.5811e-06	150	0.93061	9.878
4.5811e-06	153.57	0.93035	10.35
4.5811e-06	157.14	0.93008	10.819
4.5811e-06	160.71	0.92981	11.284
4.5811e-06	164.29	0.92952	11.746
4.5811e-06	167.86	0.92922	12.203
4.5811e-06	171.43	0.92892	12.654
4.5811e-06	175	0.9286	13.1
4.5811e-06	178.57	0.92827	13.539
4.5811e-06	182.14	0.92794	13.972
4.5811e-06	185.71	0.92759	14.398
4.5811e-06	189.29	0.92724	14.817
4.5811e-06	192.86	0.92688	15.229
4.5811e-06	196.43	0.9265	15.633
4.5811e-06	200	0.92612	16.031
4.5811e-06	203.57	0.92573	16.421
4.5811e-06	207.14	0.92534	16.803
4.5811e-06	210.71	0.92493	17.179
4.5811e-06	214.29	0.92452	17.547
4.5811e-06	217.86	0.9241	17.909
4.5811e-06	221.43	0.92367	18.264
4.5811e-06	225	0.92323	18.611
4.5811e-06	228.57	0.92279	18.953
4.5811e-06	232.14	0.92234	19.287
4.5811e-06	235.71	0.92188	19.616
4.5811e-06	239.29	0.92142	19.938
4.5811e-06	242.86	0.92095	20.254
4.5811e-06	246.43	0.92047	20.565
4.5811e-06	250	0.91999	20.87
4.5811e-06	253.57	0.9195	21.169
4.5811e-06	257.14	0.919	21.463
4.5811e-06	260.71	0.9185	21.751
4.5811e-06	264.29	0.91799	22.035
4.5811e-06	267.86	0.91748	22.313
4.5811e-06	271.43	0.91696	22.587
4.5811e-06	275	0.91644	22.857
5.9038e-06	100	0.93304	3.7224
5.9038e-06	103.57	0.93293	4.0916
5.9038e-06	107.14	0.93282	4.4771
5.9038e-06	110.71	0.93269	4.8777
5.9038e-06	114.29	0.93256	5.2921
5.9038e-06	117.86	0.93241	5.7191
5.9038e-06	121.43	0.93225	6.157
5.9038e-06	125	0.93209	6.6045
5.9038e-06	128.57	0.93191	7.06
5.9038e-06	132.14	0.93172	7.5219
5.9038e-06	135.71	0.93152	7.9888
5.9038e-06	139.29	0.93131	8.4591
5.9038e-06	142.86	0.93108	8.9317
5.9038e-06	146.43	0.93085	9.405
5.9038e-06	150	0.93061	9.878
5.9038e-06	153.57	0.93035	10.35
5.9038e-06	157.14	0.93008	10.819
5.9038e-06	160.71	0.92981	11.284
5.9038e-06	164.29	0.92952	11.746
5.9038e-06	167.86	0.92922	12.203
5.9038e-06	171.43	0.92892	12.654
5.9038e-06	175	0.9286	13.1
5.9038e-06	178.57	0.92827	13.539
5.9038e-06	182.14	0.92794	13.972
5.9038e-06	185.71	0.92759	14.398
5.9038e-06	189.29	0.92724	14.817
5.9038e-06	192.86	0.92688	15.229
5.9038e-06	196.43	0.9265	15.633
5.9038e-06	200	0.92612	16.031
5.9038e-06	203.57	0.92573	16.421
5.9038e-06	207.14	0.92534	16.803
5.9038e-06	210.71	0.92493	17.179
5.9038e-06	214.29	0.92452	17.547
5.9038e-06	217.86	0.9241	17.909
5.9038e-06	221.43	0.92367	18.264
5.9038e-06	225	0.92323	18.611
5.9038e-06	228.57	0.92279	18.953
5.9038e-06	232.14	0.92234	19.287
5.9038e-06	235.71	0.92188	19.616
5.9038e-06	239.29	0.92142	19.938
5.9038e-06	242.86	0.92095	20.254
5.9038e-06	246.43	0.92047	20.565
5.9038e-06	250	0.91999	20.869
5.9038e-06	253.57	0.9195	21.169
5.9038e-06	257.14	0.919	21.463
5.9038e-06	260.71	0.9185	21.751
5.9038e-06	264.29	0.91799	22.035
5.9038e-06	267.86	0.91748	22.313
5.9038e-06	271.43	0.91696	22.587
5.9038e-06	275	0.91644	22.857
7.6085e-06	100	0.93304	3.7224
7.6085e-06	103.57	0.93293	4.0916
7.6085e-06	107.14	0.93282	4.4771
7.6085e-06	110.71	0.93269	4.8777
7.6085e-06	114.29	0.93256	5.2921
7.6085e-06	117.86	0.93241	5.7191
7.6085e-06	121.43	0.93225	6.157
7.6085e-06	125	0.93209	6.6045
7.6085e-06	128.57	0.93191	7.06
7.6085e-06	132.14	0.93172	7.5219
7.6085e-06	135.71	0.93152	7.9887
7.6085e-06	139.29	0.93131	8.4591
7.6085e-06	142.86	0.93108	8.9316
7.6085e-06	146.43	0.93085	9.405
7.6085e-06	150	0.93061	9.878
7.6085e-06	153.57	0.93035	10.35
7.6085e-06	157.14	0.93008	10.819
7.6085e-06	160.71	0.92981	11.284
7.6085e-06	164.29	0.92952	11.746
7.6085e-06	167.86	0.92923	12.203
7.6085e-06	171.43	0.92892	12.654
7.6085e-06	175	0.9286	13.1
7.6085e-06	178.57	0.92827	13.539
7.6085e-06	182.14	0.92794	13.972
7.6085e-06	185.71	0.92759	14.398
7.6085e-06	189.29	0.92724	14.817
7.6085e-06	192.86	0.92688	15.229
7.6085e-06	196.43	0.9265	15.633
7.6085e-06	200	0.92612	16.031
7.6085e-06	203.57	0.92573	16.421
7.6085e-06	207.14	0.92534	16.803
7.6085e-06	210.71	0.92493	17.179
7.6085e-06	214.29	0.92452	17.547
7.6085e-06	217.86	0.9241	17.909
7.6085e-06	221.43	0.92367	18.263
7.6085e-06	225	0.92323	18.611
7.6085e-06	228.57	0.92279	18.953
7.6085e-06	232.14	0.92234	19.287
7.6085e-06	235.71	0.92188	19.616
7.6085e-06	239.29	0.92142	19.938
7.6085e-06	242.86	0.92095	20.254
7.6085e-06	246.43	0.92047	20.565
7.6085e-06	250	0.91999	20.869
7.6085e-06	253.57	0.9195	21.169
7.6085e-06	257.14	0.919	21.462
7.6085e-06	260.71	0.9185	21.751
7.6085e-06	264.29	0.91799	22.035
7.6085e-06	267.86	0.91748	22.313
7.6085e-06	271.43	0.91696	22.587
7.6085e-06	275	0.91644	22.856
9.8052e-06	100	0.93304	3.7224
9.8052e-06	103.57	0.93293	4.0916
9.8052e-06	107.14	0.93282	4.4771
9.8052e-06	110.71	0.93269	4.8777
9.8052e-06	114.29	0.93256	5.2921
9.8052e-06	117.86	0.93241	5.719
9.8052e-06	121.43	0.93225	6.157
9.8052e-06	125	0.93209	6.6045
9.8052e-06	128.57	0.93191	7.0599
9.8052e-06	132.14	0.93172	7.5218
9.8052e-06	135.71	0.93152	7.9887
9.8052e-06	139.29	0.93131	8.4591
9.8052e-06	142.86	0.93108	8.9316
9.8052e-06	146.43	0.93085	9.405
9.8052e-06	150	0.93061	9.878
9.8052e-06	153.57	0.93035	10.349
9.8052e-06	157.14	0.93009	10.819
9.8052e-06	160.71	0.92981	11.284
9.8052e-06	164.29	0.92952	11.746
9.8052e-06	167.86	0.92923	12.203
9.8052e-06	171.43	0.92892	12.654
9.8052e-06	175	0.9286	13.1
9.8052e-06	178.57	0.92828	13.539
9.8052e-06	182.14	0.92794	13.972
9.8052e-06	185.71	0.92759	14.398
9.8052e-06	189.29	0.92724	14.817
9.8052e-06	192.86	0.92688	15.229
9.8052e-06	196.43	0.9265	15.633
9.8052e-06	200	0.92612	16.03
9.8052e-06	203.57	0.92573	16.42
9.8052e-06	207.14	0.92534	16.803
9.8052e-06	210.71	0.92493	17.179
9.8052e-06	214.29	0.92452	17.547
9.8052e-06	217.86	0.9241	17.909
9.8052e-06	221.43	0.92367	18.263
9.8052e-06	225	0.92323	18.611
9.8052e-06	228.57	0.92279	18.953
9.8052e-06	232.14	0.92234	19.287
9.8052e-06	235.71	0.92188	19.616
9.8052e-06	239.29	0.92142	19.938
9.8052e-06	242.86	0.92095	20.254
9.8052e-06	246.43	0.92047	20.565
9.8052e-06	250	0.91999	20.869
9.8052e-06	253.57	0.9195	21.169
9.8052e-06	257.14	0.919	21.462
9.8052e-06	260.71	0.9185	21.751
9.8052e-06	264.29	0.91799	22.035
9.8052e-06	267.86	0.91748	22.313
9.8052e-06	271.43	0.91696	22.587
9.8052e-06	275	0.91644	22.856
1.2636e-05	100	0.93304	3.7224
1.2636e-05	103.57	0.93294	4.0916
1.2636e-05	107.14	0.93282	4.477
1.2636e-05	110.71	0.93269	4.8776
1.2636e-05	114.29	0.93256	5.2921
1.2636e-05	117.86	0.93241	5.719
1.2636e-05	121.43	0.93225	6.157
1.2636e-05	125	0.93209	6.6044
1.2636e-05	128.57	0.93191	7.0599
1.2636e-05	132.14	0.93172	7.5218
1.2636e-05	135.71	0.93152	7.9887
1.2636e-05	139.29	0.93131	8.4591
1.2636e-05	142.86	0.93108	8.9316
1.2636e-05	146.43	0.93085	9.4049
1.2636e-05	150	0.93061	9.8779
1.2636e-05	153.57	0.93035	10.349
1.2636e-05	157.14	0.93009	10.819
1.2636e-05	160.71	0.92981	11.284
1.2636e-05	164.29	0.92952	11.746
1.2636e-05	167.86	0.92923	12.203
1.2636e-05	171.43	0.92892	12.654
1.2636e-05	175	0.9286	13.1
1.2636e-05	178.57	0.92828	13.539
1.2636e-05	182.14	0.92794	13.972
1.2636e-05	185.71	0.92759	14.398
1.2636e-05	189.29	0.92724	14.817
1.2636e-05	192.86	0.92688	15.229
1.2636e-05	196.43	0.9265	15.633
1.2636e-05	200	0.92612	16.03
1.2636e-05	203.57	0.92573	16.42
1.2636e-05	207.14	0.92534	16.803
1.2636e-05	210.71	0.92493	17.179
1.2636e-05	214.29	0.92452	17.547
1.2636e-05	217.86	0.9241	17.909
1.2636e-05	221.43	0.92367	18.263
1.2636e-05	225	0.92323	18.611
1.2636e-05	228.57	0.92279	18.952
1.2636e-05	232.14	0.92234	19.287
1.2636e-05	235.71	0.92188	19.616
1.2636e-05	239.29	0.92142	19.938
1.2636e-05	242.86	0.92095	20.254
1.2636e-05	246.43	0.92047	20.565
1.2636e-05	250	0.91999	20.869
1.2636e-05	253.57	0.9195	21.169
1.2636e-05	257.14	0.919	21.462
1.2636e-05	260.71	0.9185	21.751
1.2636e-05	264.29	0.91799	22.035
1.2636e-05	267.86	0.91748	22.313
1.2636e-05	271.43	0.91696	22.587
1.2636e-05	275	0.91644	22.856
1.6285e-05	100	0.93304	3.7224
1.6285e-05	103.57	0.93294	4.0915
1.6285e-05	107.14	0.93282	4.477
1.6285e-05	110.71	0.93269	4.8776
1.6285e-05	114.29	0.93256	5.2921
1.6285e-05	117.86	0.93241	5.719
1.6285e-05	121.43	0.93226	6.1569
1.6285e-05	125	0.93209	6.6044
1.6285e-05	128.57	0.93191	7.0599
1.6285e-05	132.14	0.93172	7.5218
1.6285e-05	135.71	0.93152	7.9886
1.6285e-05	139.29	0.93131	8.459
1.6285e-05	142.86	0.93108	8.9315
1.6285e-05	146.43	0.93085	9.4049
1.6285e-05	150	0.93061	9.8779
1.6285e-05	153.57	0.93035	10.349
1.6285e-05	157.14	0.93009	10.818
1.6285e-05	160.71	0.92981	11.284
1.6285e-05	164.29	0.92952	11.746
1.6285e-05	167.86	0.92923	12.203
1.6285e-05	171.43	0.92892	12.654
1.6285e-05	175	0.9286	13.1
1.6285e-05	178.57	0.92828	13.539
1.6285e-05	182.14	0.92794	13.972
1.6285e-05	185.71	0.92759	14.398
1.6285e-05	189.29	0.92724	14.817
1.6285e-05	192.86	0.92688	15.229
1.6285e-05	196.43	0.9265	15.633
1.6285e-05	200	0.92612	16.03
1.6285e-05	203.57	0.92573	16.42
1.6285e-05	207.14	0.92534	16.803
1.6285e-05	210.71	0.92493	17.179
1.6285e-05	214.29	0.92452	17.547
1.6285e-05	217.86	0.9241	17.909
1.6285e-05	221.43	0.92367	18.263
1.6285e-05	225	0.92323	18.611
1.6285e-05	228.57	0.92279	18.952
1.6285e-05	232.14	0.92234	19.287
1.6285e-05	235.71	0.92188	19.616
1.6285e-05	239.29	0.92142	19.938
1.6285e-05	242.86	0.92095	20.254
1.6285e-05	246.43	0.92047	20.564
1.6285e-05	250	0.91999	20.869
1.6285e-05	253.57	0.9195	21.168
1.6285e-05	257.14	0.919	21.462
1.6285e-05	260.71	0.9185	21.751
1.6285e-05	264.29	0.91799	22.034
1.6285e-05	267.86	0.91748	22.313
1.6285e-05	271.43	0.91696	22.587
1.6285e-05	275	0.91644	22.856
2.0987e-05	100	0.93304	3.7223
2.0987e-05	103.57	0.93294	4.0915
2.0987e-05	107.14	0.93282	4.477
2.0987e-05	110.71	0.93269	4.8776
2.0987e-05	114.29	0.93256	5.292
2.0987e-05	117.86	0.93241	5.719
2.0987e-05	121.43	0.93226	6.1569
