Press (GPa)	Temp (K)	Density (g/cm^-3)	dT/dP (K/GPa)
1e-06	240	0.97881	-83.613
1e-06	245.31	0.98651	-61.768
1e-06	250.61	0.99167	-44.65
1e-06	255.92	0.99515	-31.341
1e-06	261.22	0.99746	-21.071
1e-06	266.53	0.99891	-12.848
1e-06	271.84	0.99969	-5.9634
1e-06	277.14	0.99993	-0.0061744
1e-06	282.45	0.99971	5.2685
1e-06	287.76	0.99911	10.039
1e-06	293.06	0.99818	14.441
1e-06	298.37	0.99695	18.555
1e-06	303.67	0.99545	22.473
1e-06	308.98	0.9937	26.231
1e-06	314.29	0.99173	29.879
1e-06	319.59	0.98956	33.446
1e-06	324.9	0.98719	36.96
1e-06	330.2	0.98464	40.442
1e-06	335.51	0.98192	43.912
1e-06	340.82	0.97904	47.385
1e-06	346.12	0.976	50.875
1e-06	351.43	0.97281	54.394
1e-06	356.73	0.96948	57.955
1e-06	362.04	0.96601	61.568
1e-06	367.35	0.9624	65.242
1e-06	372.65	0.95866	68.988
1e-06	377.96	0.95479	72.815
1e-06	383.27	0.95079	76.733
1e-06	388.57	0.94667	80.751
1e-06	393.88	0.94242	84.88
1e-06	399.18	0.93804	89.131
1e-06	404.49	0.93355	93.514
1e-06	409.8	0.92892	98.042
1e-06	415.1	0.92418	102.73
1e-06	420.41	0.9193	107.58
1e-06	425.71	0.9143	112.62
1e-06	431.02	0.90918	117.87
1e-06	436.33	0.90391	123.33
1e-06	441.63	0.89852	129.03
1e-06	446.94	0.89298	134.99
1e-06	452.24	0.88731	141.24
1e-06	457.55	0.88149	147.79
1e-06	462.86	0.87551	154.69
1e-06	468.16	0.86938	161.97
1e-06	473.47	0.86308	169.64
1e-06	478.78	0.85661	177.77
1e-06	484.08	0.84996	186.41
1e-06	489.39	0.84311	195.61
1e-06	494.69	0.83607	205.42
1e-06	500	0.8288	215.87
1.1595e-06	240	0.97881	-83.613
1.1595e-06	245.31	0.98651	-61.768
1.1595e-06	250.61	0.99167	-44.65
1.1595e-06	255.92	0.99515	-31.341
1.1595e-06	261.22	0.99746	-21.071
1.1595e-06	266.53	0.99891	-12.848
1.1595e-06	271.84	0.99969	-5.9634
1.1595e-06	277.14	0.99993	-0.0061401
1.1595e-06	282.45	0.99971	5.2685
1.1595e-06	287.76	0.99911	10.039
1.1595e-06	293.06	0.99818	14.441
1.1595e-06	298.37	0.99695	18.555
1.1595e-06	303.67	0.99545	22.473
1.1595e-06	308.98	0.9937	26.231
1.1595e-06	314.29	0.99173	29.879
1.1595e-06	319.59	0.98956	33.446
1.1595e-06	324.9	0.98719	36.96
1.1595e-06	330.2	0.98464	40.442
1.1595e-06	335.51	0.98192	43.912
1.1595e-06	340.82	0.97904	47.385
1.1595e-06	346.12	0.976	50.875
1.1595e-06	351.43	0.97281	54.394
1.1595e-06	356.73	0.96948	57.955
1.1595e-06	362.04	0.96601	61.568
1.1595e-06	367.35	0.9624	65.242
1.1595e-06	372.65	0.95866	68.988
1.1595e-06	377.96	0.95479	72.815
1.1595e-06	383.27	0.95079	76.732
1.1595e-06	388.57	0.94667	80.751
1.1595e-06	393.88	0.94242	84.88
1.1595e-06	399.18	0.93804	89.131
1.1595e-06	404.49	0.93355	93.514
1.1595e-06	409.8	0.92892	98.042
1.1595e-06	415.1	0.92418	102.73
1.1595e-06	420.41	0.9193	107.58
1.1595e-06	425.71	0.9143	112.62
1.1595e-06	431.02	0.90918	117.87
1.1595e-06	436.33	0.90391	123.33
1.1595e-06	441.63	0.89852	129.03
1.1595e-06	446.94	0.89298	134.99
1.1595e-06	452.24	0.88731	141.24
1.1595e-06	457.55	0.88149	147.79
1.1595e-06	462.86	0.87551	154.69
1.1595e-06	468.16	0.86938	161.97
1.1595e-06	473.47	0.86308	169.64
1.1595e-06	478.78	0.85661	177.77
1.1595e-06	484.08	0.84996	186.41
1.1595e-06	489.39	0.84311	195.61
1.1595e-06	494.69	0.83607	205.42
1.1595e-06	500	0.8288	215.87
1.3444e-06	240	0.97881	-83.613
1.3444e-06	245.31	0.98651	-61.768
1.3444e-06	250.61	0.99167	-44.65
1.3444e-06	255.92	0.99515	-31.341
1.3444e-06	261.22	0.99746	-21.071
1.3444e-06	266.53	0.99891	-12.848
1.3444e-06	271.84	0.99969	-5.9634
1.3444e-06	277.14	0.99993	-0.0061004
1.3444e-06	282.45	0.99971	5.2686
1.3444e-06	287.76	0.99911	10.039
1.3444e-06	293.06	0.99818	14.441
1.3444e-06	298.37	0.99695	18.555
1.3444e-06	303.67	0.99545	22.473
1.3444e-06	308.98	0.9937	26.231
1.3444e-06	314.29	0.99173	29.879
1.3444e-06	319.59	0.98956	33.446
1.3444e-06	324.9	0.98719	36.96
1.3444e-06	330.2	0.98464	40.442
1.3444e-06	335.51	0.98192	43.912
1.3444e-06	340.82	0.97904	47.385
1.3444e-06	346.12	0.976	50.875
1.3444e-06	351.43	0.97281	54.394
1.3444e-06	356.73	0.96948	57.955
1.3444e-06	362.04	0.96601	61.568
1.3444e-06	367.35	0.9624	65.242
1.3444e-06	372.65	0.95866	68.988
1.3444e-06	377.96	0.95479	72.815
1.3444e-06	383.27	0.95079	76.732
1.3444e-06	388.57	0.94667	80.751
1.3444e-06	393.88	0.94242	84.88
1.3444e-06	399.18	0.93804	89.131
1.3444e-06	404.49	0.93355	93.514
1.3444e-06	409.8	0.92892	98.042
1.3444e-06	415.1	0.92418	102.73
1.3444e-06	420.41	0.9193	107.58
1.3444e-06	425.71	0.9143	112.62
1.3444e-06	431.02	0.90918	117.87
1.3444e-06	436.33	0.90391	123.33
1.3444e-06	441.63	0.89852	129.03
1.3444e-06	446.94	0.89298	134.99
1.3444e-06	452.24	0.88731	141.24
1.3444e-06	457.55	0.88149	147.79
1.3444e-06	462.86	0.87551	154.69
1.3444e-06	468.16	0.86938	161.97
1.3444e-06	473.47	0.86308	169.64
1.3444e-06	478.78	0.85661	177.77
1.3444e-06	484.08	0.84996	186.4
1.3444e-06	489.39	0.84311	195.61
1.3444e-06	494.69	0.83607	205.42
1.3444e-06	500	0.8288	215.87
1.5588e-06	240	0.97881	-83.613
1.5588e-06	245.31	0.98651	-61.768
1.5588e-06	250.61	0.99167	-44.65
1.5588e-06	255.92	0.99515	-31.341
1.5588e-06	261.22	0.99746	-21.071
1.5588e-06	266.53	0.99891	-12.848
1.5588e-06	271.84	0.99969	-5.9633
1.5588e-06	277.14	0.99993	-0.0060543
1.5588e-06	282.45	0.99971	5.2686
1.5588e-06	287.76	0.99911	10.039
1.5588e-06	293.06	0.99818	14.441
1.5588e-06	298.37	0.99695	18.555
1.5588e-06	303.67	0.99545	22.473
1.5588e-06	308.98	0.9937	26.231
1.5588e-06	314.29	0.99173	29.879
1.5588e-06	319.59	0.98956	33.446
1.5588e-06	324.9	0.98719	36.96
1.5588e-06	330.2	0.98464	40.442
1.5588e-06	335.51	0.98192	43.912
1.5588e-06	340.82	0.97904	47.385
1.5588e-06	346.12	0.976	50.875
1.5588e-06	351.43	0.97281	54.394
1.5588e-06	356.73	0.96948	57.955
1.5588e-06	362.04	0.96601	61.568
1.5588e-06	367.35	0.9624	65.242
1.5588e-06	372.65	0.95866	68.988
1.5588e-06	377.96	0.95479	72.815
1.5588e-06	383.27	0.95079	76.732
1.5588e-06	388.57	0.94667	80.751
1.5588e-06	393.88	0.94242	84.88
1.5588e-06	399.18	0.93804	89.131
1.5588e-06	404.49	0.93355	93.514
1.5588e-06	409.8	0.92892	98.042
1.5588e-06	415.1	0.92418	102.73
1.5588e-06	420.41	0.91931	107.58
1.5588e-06	425.71	0.9143	112.62
1.5588e-06	431.02	0.90918	117.87
1.5588e-06	436.33	0.90391	123.33
1.5588e-06	441.63	0.89852	129.03
1.5588e-06	446.94	0.89298	134.99
1.5588e-06	452.24	0.88731	141.24
1.5588e-06	457.55	0.88149	147.79
1.5588e-06	462.86	0.87551	154.69
1.5588e-06	468.16	0.86938	161.97
1.5588e-06	473.47	0.86308	169.64
1.5588e-06	478.78	0.85661	177.77
1.5588e-06	484.08	0.84996	186.4
1.5588e-06	489.39	0.84311	195.61
1.5588e-06	494.69	0.83607	205.42
1.5588e-06	500	0.8288	215.87
1.8073e-06	240	0.97881	-83.613
1.8073e-06	245.31	0.98651	-61.768
1.8073e-06	250.61	0.99167	-44.65
1.8073e-06	255.92	0.99515	-31.341
1.8073e-06	261.22	0.99746	-21.071
1.8073e-06	266.53	0.99891	-12.848
1.8073e-06	271.84	0.99969	-5.9632
1.8073e-06	277.14	0.99993	-0.0060009
1.8073e-06	282.45	0.99971	5.2687
1.8073e-06	287.76	0.99911	10.04
1.8073e-06	293.06	0.99818	14.441
1.8073e-06	298.37	0.99695	18.555
1.8073e-06	303.67	0.99545	22.473
1.8073e-06	308.98	0.9937	26.231
1.8073e-06	314.29	0.99173	29.879
1.8073e-06	319.59	0.98956	33.446
1.8073e-06	324.9	0.98719	36.96
1.8073e-06	330.2	0.98464	40.442
1.8073e-06	335.51	0.98192	43.912
1.8073e-06	340.82	0.97904	47.385
1.8073e-06	346.12	0.976	50.875
1.8073e-06	351.43	0.97281	54.394
1.8073e-06	356.73	0.96948	57.955
1.8073e-06	362.04	0.96601	61.568
1.8073e-06	367.35	0.9624	65.242
1.8073e-06	372.65	0.95866	68.988
1.8073e-06	377.96	0.95479	72.815
1.8073e-06	383.27	0.95079	76.732
1.8073e-06	388.57	0.94667	80.751
1.8073e-06	393.88	0.94242	84.88
1.8073e-06	399.18	0.93804	89.131
1.8073e-06	404.49	0.93355	93.514
1.8073e-06	409.8	0.92892	98.042
1.8073e-06	415.1	0.92418	102.73
1.8073e-06	420.41	0.91931	107.58
1.8073e-06	425.71	0.91431	112.62
1.8073e-06	431.02	0.90918	117.87
1.8073e-06	436.33	0.90391	123.33
1.8073e-06	441.63	0.89852	129.03
1.8073e-06	446.94	0.89298	134.99
1.8073e-06	452.24	0.88731	141.24
1.8073e-06	457.55	0.88149	147.79
1.8073e-06	462.86	0.87551	154.69
1.8073e-06	468.16	0.86938	161.96
1.8073e-06	473.47	0.86308	169.64
1.8073e-06	478.78	0.85661	177.77
1.8073e-06	484.08	0.84996	186.4
1.8073e-06	489.39	0.84311	195.61
1.8073e-06	494.69	0.83607	205.42
1.8073e-06	500	0.8288	215.87
2.0956e-06	240	0.97881	-83.612
2.0956e-06	245.31	0.98651	-61.767
2.0956e-06	250.61	0.99167	-44.65
2.0956e-06	255.92	0.99515	-31.341
2.0956e-06	261.22	0.99746	-21.071
2.0956e-06	266.53	0.99891	-12.848
2.0956e-06	271.84	0.99969	-5.9632
2.0956e-06	277.14	0.99993	-0.0059389
2.0956e-06	282.45	0.99971	5.2687
2.0956e-06	287.76	0.99911	10.04
2.0956e-06	293.06	0.99818	14.441
2.0956e-06	298.37	0.99695	18.555
2.0956e-06	303.67	0.99545	22.473
2.0956e-06	308.98	0.9937	26.231
2.0956e-06	314.29	0.99173	29.879
2.0956e-06	319.59	0.98956	33.446
2.0956e-06	324.9	0.98719	36.96
2.0956e-06	330.2	0.98464	40.442
2.0956e-06	335.51	0.98192	43.912
2.0956e-06	340.82	0.97904	47.385
2.0956e-06	346.12	0.976	50.875
2.0956e-06	351.43	0.97281	54.394
2.0956e-06	356.73	0.96948	57.955
2.0956e-06	362.04	0.96601	61.568
2.0956e-06	367.35	0.9624	65.242
2.0956e-06	372.65	0.95866	68.988
2.0956e-06	377.96	0.95479	72.815
2.0956e-06	383.27	0.95079	76.732
2.0956e-06	388.57	0.94667	80.751
2.0956e-06	393.88	0.94242	84.88
2.0956e-06	399.18	0.93804	89.131
2.0956e-06	404.49	0.93355	93.514
2.0956e-06	409.8	0.92892	98.042
2.0956e-06	415.1	0.92418	102.73
2.0956e-06	420.41	0.91931	107.58
2.0956e-06	425.71	0.91431	112.62
2.0956e-06	431.02	0.90918	117.87
2.0956e-06	436.33	0.90391	123.33
2.0956e-06	441.63	0.89852	129.03
2.0956e-06	446.94	0.89299	134.99
2.0956e-06	452.24	0.88731	141.24
2.0956e-06	457.55	0.88149	147.79
2.0956e-06	462.86	0.87551	154.69
2.0956e-06	468.16	0.86938	161.96
2.0956e-06	473.47	0.86308	169.64
2.0956e-06	478.78	0.85661	177.77
2.0956e-06	484.08	0.84996	186.4
2.0956e-06	489.39	0.84312	195.61
2.0956e-06	494.69	0.83607	205.42
2.0956e-06	500	0.8288	215.87
2.4297e-06	240	0.97881	-83.612
2.4297e-06	245.31	0.98651	-61.767
2.4297e-06	250.61	0.99167	-44.649
2.4297e-06	255.92	0.99515	-31.34
2.4297e-06	261.22	0.99746	-21.07
2.4297e-06	266.53	0.99891	-12.847
2.4297e-06	271.84	0.99969	-5.9631
2.4297e-06	277.14	0.99993	-0.0058671
2.4297e-06	282.45	0.99971	5.2688
2.4297e-06	287.76	0.99912	10.04
2.4297e-06	293.06	0.99818	14.442
2.4297e-06	298.37	0.99695	18.555
2.4297e-06	303.67	0.99545	22.473
2.4297e-06	308.98	0.9937	26.231
2.4297e-06	314.29	0.99173	29.879
2.4297e-06	319.59	0.98956	33.446
2.4297e-06	324.9	0.98719	36.96
2.4297e-06	330.2	0.98464	40.442
2.4297e-06	335.51	0.98192	43.912
2.4297e-06	340.82	0.97904	47.385
2.4297e-06	346.12	0.976	50.875
2.4297e-06	351.43	0.97281	54.394
2.4297e-06	356.73	0.96948	57.955
2.4297e-06	362.04	0.96601	61.568
2.4297e-06	367.35	0.9624	65.242
2.4297e-06	372.65	0.95866	68.988
2.4297e-06	377.96	0.95479	72.814
2.4297e-06	383.27	0.95079	76.732
2.4297e-06	388.57	0.94667	80.751
2.4297e-06	393.88	0.94242	84.88
2.4297e-06	399.18	0.93804	89.131
2.4297e-06	404.49	0.93355	93.514
2.4297e-06	409.8	0.92893	98.041
2.4297e-06	415.1	0.92418	102.73
2.4297e-06	420.41	0.91931	107.58
2.4297e-06	425.71	0.91431	112.62
2.4297e-06	431.02	0.90918	117.87
2.4297e-06	436.33	0.90391	123.33
2.4297e-06	441.63	0.89852	129.03
2.4297e-06	446.94	0.89299	134.99
2.4297e-06	452.24	0.88731	141.24
2.4297e-06	457.55	0.88149	147.79
2.4297e-06	462.86	0.87551	154.69
2.4297e-06	468.16	0.86938	161.96
2.4297e-06	473.47	0.86308	169.64
2.4297e-06	478.78	0.85661	177.77
2.4297e-06	484.08	0.84996	186.4
2.4297e-06	489.39	0.84312	195.61
2.4297e-06	494.69	0.83607	205.42
2.4297e-06	500	0.8288	215.87
2.8172e-06	240	0.97881	-83.611
2.8172e-06	245.31	0.98651	-61.767
2.8172e-06	250.61	0.99167	-44.649
2.8172e-06	255.92	0.99515	-31.34
2.8172e-06	261.22	0.99746	-21.07
2.8172e-06	266.53	0.99891	-12.847
2.8172e-06	271.84	0.99969	-5.963
2.8172e-06	277.14	0.99993	-0.0057838
2.8172e-06	282.45	0.99971	5.2688
2.8172e-06	287.76	0.99912	10.04
2.8172e-06	293.06	0.99818	14.442
2.8172e-06	298.37	0.99695	18.555
2.8172e-06	303.67	0.99545	22.473
2.8172e-06	308.98	0.9937	26.231
2.8172e-06	314.29	0.99173	29.879
2.8172e-06	319.59	0.98956	33.446
2.8172e-06	324.9	0.98719	36.96
2.8172e-06	330.2	0.98464	40.442
2.8172e-06	335.51	0.98192	43.912
2.8172e-06	340.82	0.97904	47.385
2.8172e-06	346.12	0.976	50.874
2.8172e-06	351.43	0.97281	54.394
2.8172e-06	356.73	0.96948	57.955
2.8172e-06	362.04	0.96601	61.567
2.8172e-06	367.35	0.9624	65.242
2.8172e-06	372.65	0.95866	68.987
2.8172e-06	377.96	0.95479	72.814
2.8172e-06	383.27	0.95079	76.732
2.8172e-06	388.57	0.94667	80.751
2.8172e-06	393.88	0.94242	84.88
2.8172e-06	399.18	0.93804	89.13
2.8172e-06	404.49	0.93355	93.514
2.8172e-06	409.8	0.92893	98.041
2.8172e-06	415.1	0.92418	102.73
2.8172e-06	420.41	0.91931	107.58
2.8172e-06	425.71	0.91431	112.62
2.8172e-06	431.02	0.90918	117.87
2.8172e-06	436.33	0.90392	123.33
2.8172e-06	441.63	0.89852	129.03
2.8172e-06	446.94	0.89299	134.99
2.8172e-06	452.24	0.88731	141.24
2.8172e-06	457.55	0.88149	147.79
2.8172e-06	462.86	0.87551	154.69
2.8172e-06	468.16	0.86938	161.96
2.8172e-06	473.47	0.86308	169.64
2.8172e-06	478.78	0.85661	177.76
2.8172e-06	484.08	0.84996	186.4
2.8172e-06	489.39	0.84312	195.61
2.8172e-06	494.69	0.83607	205.42
2.8172e-06	500	0.8288	215.87
3.2665e-06	240	0.97882	-83.611
3.2665e-06	245.31	0.98651	-61.766
3.2665e-06	250.61	0.99167	-44.649
3.2665e-06	255.92	0.99515	-31.34
3.2665e-06	261.22	0.99746	-21.07
3.2665e-06	266.53	0.99891	-12.847
3.2665e-06	271.84	0.99969	-5.9628
3.2665e-06	277.14	0.99993	-0.0056873
3.2665e-06	282.45	0.99971	5.2689
3.2665e-06	287.76	0.99912	10.04
3.2665e-06	293.06	0.99818	14.442
3.2665e-06	298.37	0.99695	18.555
3.2665e-06	303.67	0.99545	22.473
3.2665e-06	308.98	0.9937	26.231
3.2665e-06	314.29	0.99173	29.879
3.2665e-06	319.59	0.98956	33.446
3.2665e-06	324.9	0.98719	36.96
3.2665e-06	330.2	0.98464	40.442
3.2665e-06	335.51	0.98192	43.912
3.2665e-06	340.82	0.97904	47.385
3.2665e-06	346.12	0.976	50.874
3.2665e-06	351.43	0.97281	54.394
3.2665e-06	356.73	0.96948	57.955
3.2665e-06	362.04	0.96601	61.567
3.2665e-06	367.35	0.9624	65.242
3.2665e-06	372.65	0.95866	68.987
3.2665e-06	377.96	0.95479	72.814
3.2665e-06	383.27	0.95079	76.732
3.2665e-06	388.57	0.94667	80.75
3.2665e-06	393.88	0.94242	84.88
3.2665e-06	399.18	0.93805	89.13
3.2665e-06	404.49	0.93355	93.514
3.2665e-06	409.8	0.92893	98.041
3.2665e-06	415.1	0.92418	102.73
3.2665e-06	420.41	0.91931	107.58
3.2665e-06	425.71	0.91431	112.62
3.2665e-06	431.02	0.90918	117.87
3.2665e-06	436.33	0.90392	123.33
3.2665e-06	441.63	0.89852	129.03
3.2665e-06	446.94	0.89299	134.99
3.2665e-06	452.24	0.88731	141.24
3.2665e-06	457.55	0.88149	147.79
3.2665e-06	462.86	0.87551	154.69
3.2665e-06	468.16	0.86938	161.96
3.2665e-06	473.47	0.86308	169.64
3.2665e-06	478.78	0.85661	177.76
3.2665e-06	484.08	0.84996	186.4
3.2665e-06	489.39	0.84312	195.61
3.2665e-06	494.69	0.83607	205.42
3.2665e-06	500	0.8288	215.87
3.7874e-06	240	0.97882	-83.61
3.7874e-06	245.31	0.98651	-61.766
3.7874e-06	250.61	0.99167	-44.649
3.7874e-06	255.92	0.99515	-31.34
3.7874e-06	261.22	0.99746	-21.07
3.7874e-06	266.53	0.99891	-12.847
3.7874e-06	271.84	0.99969	-5.9627
3.7874e-06	277.14	0.99993	-0.0055753
3.7874e-06	282.45	0.99971	5.269
3.7874e-06	287.76	0.99912	10.04
3.7874e-06	293.06	0.99818	14.442
3.7874e-06	298.37	0.99695	18.555
3.7874e-06	303.67	0.99545	22.473
3.7874e-06	308.98	0.9937	26.231
3.7874e-06	314.29	0.99173	29.879
3.7874e-06	319.59	0.98956	33.446
3.7874e-06	324.9	0.98719	36.96
3.7874e-06	330.2	0.98464	40.442
3.7874e-06	335.51	0.98192	43.912
3.7874e-06	340.82	0.97904	47.384
3.7874e-06	346.12	0.976	50.874
3.7874e-06	351.43	0.97281	54.394
3.7874e-06	356.73	0.96948	57.955
3.7874e-06	362.04	0.96601	61.567
3.7874e-06	367.35	0.9624	65.242
3.7874e-06	372.65	0.95866	68.987
3.7874e-06	377.96	0.95479	72.814
3.7874e-06	383.27	0.95079	76.732
3.7874e-06	388.57	0.94667	80.75
3.7874e-06	393.88	0.94242	84.88
3.7874e-06	399.18	0.93805	89.13
3.7874e-06	404.49	0.93355	93.513
3.7874e-06	409.8	0.92893	98.041
3.7874e-06	415.1	0.92418	102.73
3.7874e-06	420.41	0.91931	107.58
3.7874e-06	425.71	0.91431	112.62
3.7874e-06	431.02	0.90918	117.87
3.7874e-06	436.33	0.90392	123.33
3.7874e-06	441.63	0.89852	129.03
3.7874e-06	446.94	0.89299	134.99
3.7874e-06	452.24	0.88731	141.24
3.7874e-06	457.55	0.88149	147.79
3.7874e-06	462.86	0.87551	154.69
3.7874e-06	468.16	0.86938	161.96
3.7874e-06	473.47	0.86308	169.64
3.7874e-06	478.78	0.85661	177.76
3.7874e-06	484.08	0.84996	186.4
3.7874e-06	489.39	0.84312	195.61
3.7874e-06	494.69	0.83607	205.42
3.7874e-06	500	0.8288	215.87
4.3914e-06	240	0.97882	-83.61
4.3914e-06	245.31	0.98651	-61.765
4.3914e-06	250.61	0.99167	-44.648
4.3914e-06	255.92	0.99515	-31.339
4.3914e-06	261.22	0.99746	-21.07
4.3914e-06	266.53	0.99891	-12.847
4.3914e-06	271.84	0.99969	-5.9625
4.3914e-06	277.14	0.99993	-0.0054455
4.3914e-06	282.45	0.99971	5.2691
4.3914e-06	287.76	0.99912	10.04
4.3914e-06	293.06	0.99818	14.442
4.3914e-06	298.37	0.99695	18.555
4.3914e-06	303.67	0.99545	22.473
4.3914e-06	308.98	0.9937	26.231
4.3914e-06	314.29	0.99173	29.879
4.3914e-06	319.59	0.98956	33.446
4.3914e-06	324.9	0.98719	36.96
4.3914e-06	330.2	0.98464	40.442
4.3914e-06	335.51	0.98192	43.912
4.3914e-06	340.82	0.97904	47.384
4.3914e-06	346.12	0.976	50.874
4.3914e-06	351.43	0.97281	54.394
4.3914e-06	356.73	0.96948	57.955
4.3914e-06	362.04	0.96601	61.567
4.3914e-06	367.35	0.9624	65.241
4.3914e-06	372.65	0.95866	68.987
4.3914e-06	377.96	0.95479	72.814
4.3914e-06	383.27	0.95079	76.732
4.3914e-06	388.57	0.94667	80.75
4.3914e-06	393.88	0.94242	84.879
4.3914e-06	399.18	0.93805	89.13
4.3914e-06	404.49	0.93355	93.513
4.3914e-06	409.8	0.92893	98.041
4.3914e-06	415.1	0.92418	102.73
4.3914e-06	420.41	0.91931	107.58
4.3914e-06	425.71	0.91431	112.62
4.3914e-06	431.02	0.90918	117.87
4.3914e-06	436.33	0.90392	123.33
4.3914e-06	441.63	0.89852	129.03
4.3914e-06	446.94	0.89299	134.99
4.3914e-06	452.24	0.88731	141.24
4.3914e-06	457.55	0.88149	147.79
4.3914e-06	462.86	0.87551	154.69
4.3914e-06	468.16	0.86938	161.96
4.3914e-06	473.47	0.86308	169.64
4.3914e-06	478.78	0.85661	177.76
4.3914e-06	484.08	0.84996	186.4
4.3914e-06	489.39	0.84312	195.6
4.3914e-06	494.69	0.83607	205.42
4.3914e-06	500	0.8288	215.87
5.0917e-06	240	0.97882	-83.609
5.0917e-06	245.31	0.98651	-61.765
5.0917e-06	250.61	0.99167	-44.648
5.0917e-06	255.92	0.99515	-31.339
5.0917e-06	261.22	0.99746	-21.069
5.0917e-06	266.53	0.99891	-12.847
5.0917e-06	271.84	0.99969	-5.9624
5.0917e-06	277.14	0.99993	-0.005295
5.0917e-06	282.45	0.99971	5.2692
5.0917e-06	287.76	0.99912	10.04
5.0917e-06	293.06	0.99818	14.442
5.0917e-06	298.37	0.99695	18.556
5.0917e-06	303.67	0.99545	22.474
5.0917e-06	308.98	0.9937	26.231
5.0917e-06	314.29	0.99173	29.879
5.0917e-06	319.59	0.98956	33.446
5.0917e-06	324.9	0.98719	36.96
5.0917e-06	330.2	0.98464	40.442
5.0917e-06	335.51	0.98192	43.911
5.0917e-06	340.82	0.97904	47.384
5.0917e-06	346.12	0.976	50.874
5.0917e-06	351.43	0.97281	54.394
5.0917e-06	356.73	0.96948	57.955
5.0917e-06	362.04	0.96601	61.567
5.0917e-06	367.35	0.9624	65.241
5.0917e-06	372.65	0.95866	68.987
5.0917e-06	377.96	0.95479	72.814
5.0917e-06	383.27	0.95079	76.732
5.0917e-06	388.57	0.94667	80.75
5.0917e-06	393.88	0.94242	84.879
5.0917e-06	399.18	0.93805	89.13
5.0917e-06	404.49	0.93355	93.513
5.0917e-06	409.8	0.92893	98.041
5.0917e-06	415.1	0.92418	102.73
5.0917e-06	420.41	0.91931	107.58
5.0917e-06	425.71	0.91431	112.62
5.0917e-06	431.02	0.90918	117.87
5.0917e-06	436.33	0.90392	123.33
5.0917e-06	441.63	0.89852	129.03
5.0917e-06	446.94	0.89299	134.99
5.0917e-06	452.24	0.88731	141.24
5.0917e-06	457.55	0.88149	147.79
5.0917e-06	462.86	0.87551	154.69
5.0917e-06	468.16	0.86938	161.96
5.0917e-06	473.47	0.86308	169.64
5.0917e-06	478.78	0.85661	177.76
5.0917e-06	484.08	0.84996	186.4
